#FORMAT	     : EMSA/MAS Spectral Data File
#VERSION     : 1.0
#TITLE       : projected gauss
#DATE        : 
#TIME        : 
#OWNER       : 
#NPOINTS     : 1024
#NCOLUMNS    : 1
#XUNITS      : 
#YUNITS      : 
#DATATYPE    : XY
#XPERCHAN    : 1.000000e+000
#OFFSET      : 0.000000e+000
#SPECTRUM    : Spectral Data Starts Here
0.000000e+000, 2.876160e-002
1.000000e+000, 2.876372e-002
2.000000e+000, 2.877012e-002
3.000000e+000, 2.878078e-002
4.000000e+000, 2.879568e-002
5.000000e+000, 2.881487e-002
6.000000e+000, 2.883835e-002
7.000000e+000, 2.886607e-002
8.000000e+000, 2.889809e-002
9.000000e+000, 2.893441e-002
1.000000e+001, 2.897501e-002
1.100000e+001, 2.901992e-002
1.200000e+001, 2.906915e-002
1.300000e+001, 2.912271e-002
1.400000e+001, 2.918060e-002
1.500000e+001, 2.924284e-002
1.600000e+001, 2.930944e-002
1.700000e+001, 2.938042e-002
1.800000e+001, 2.945579e-002
1.900000e+001, 2.953556e-002
2.000000e+001, 2.961976e-002
2.100000e+001, 2.970839e-002
2.200000e+001, 2.980149e-002
2.300000e+001, 2.989907e-002
2.400000e+001, 3.000116e-002
2.500000e+001, 3.010774e-002
2.600000e+001, 3.021888e-002
2.700000e+001, 3.033458e-002
2.800000e+001, 3.045486e-002
2.900000e+001, 3.057978e-002
3.000000e+001, 3.070930e-002
3.100000e+001, 3.084350e-002
3.200000e+001, 3.098241e-002
3.300000e+001, 3.112601e-002
3.400000e+001, 3.127437e-002
3.500000e+001, 3.142752e-002
3.600000e+001, 3.158546e-002
3.700000e+001, 3.174825e-002
3.800000e+001, 3.191590e-002
3.900000e+001, 3.208847e-002
4.000000e+001, 3.226596e-002
4.100000e+001, 3.244847e-002
4.200000e+001, 3.263595e-002
4.300000e+001, 3.282848e-002
4.400000e+001, 3.302610e-002
4.500000e+001, 3.322884e-002
4.600000e+001, 3.343676e-002
4.700000e+001, 3.364986e-002
4.800000e+001, 3.386820e-002
4.900000e+001, 3.409183e-002
5.000000e+001, 3.432079e-002
5.100000e+001, 3.455510e-002
5.200000e+001, 3.479486e-002
5.300000e+001, 3.504005e-002
5.400000e+001, 3.529074e-002
5.500000e+001, 3.554700e-002
5.600000e+001, 3.580884e-002
5.700000e+001, 3.607634e-002
5.800000e+001, 3.634952e-002
5.900000e+001, 3.662846e-002
6.000000e+001, 3.691318e-002
6.100000e+001, 3.720377e-002
6.200000e+001, 3.750023e-002
6.300000e+001, 3.780266e-002
6.400000e+001, 3.811107e-002
6.500000e+001, 3.842555e-002
6.600000e+001, 3.874614e-002
6.700000e+001, 3.907289e-002
6.800000e+001, 3.940587e-002
6.900000e+001, 3.974514e-002
7.000000e+001, 4.009075e-002
7.100000e+001, 4.044276e-002
7.200000e+001, 4.080122e-002
7.300000e+001, 4.116620e-002
7.400000e+001, 4.153775e-002
7.500000e+001, 4.191595e-002
7.600000e+001, 4.230085e-002
7.700000e+001, 4.269251e-002
7.800000e+001, 4.309099e-002
7.900000e+001, 4.349639e-002
8.000000e+001, 4.390872e-002
8.100000e+001, 4.432809e-002
8.200000e+001, 4.475453e-002
8.300000e+001, 4.518813e-002
8.400000e+001, 4.562895e-002
8.500000e+001, 4.607708e-002
8.600000e+001, 4.653256e-002
8.700000e+001, 4.699546e-002
8.800000e+001, 4.746585e-002
8.900000e+001, 4.794383e-002
9.000000e+001, 4.842944e-002
9.100000e+001, 4.892276e-002
9.200000e+001, 4.942387e-002
9.300000e+001, 4.993284e-002
9.400000e+001, 5.044972e-002
9.500000e+001, 5.097463e-002
9.600000e+001, 5.150760e-002
9.700000e+001, 5.204872e-002
9.800000e+001, 5.259808e-002
9.900000e+001, 5.315574e-002
1.000000e+002, 5.372177e-002
1.010000e+002, 5.429628e-002
1.020000e+002, 5.487932e-002
1.030000e+002, 5.547095e-002
1.040000e+002, 5.607129e-002
1.050000e+002, 5.668040e-002
1.060000e+002, 5.729834e-002
1.070000e+002, 5.792524e-002
1.080000e+002, 5.856112e-002
1.090000e+002, 5.920610e-002
1.100000e+002, 5.986024e-002
1.110000e+002, 6.052366e-002
1.120000e+002, 6.119639e-002
1.130000e+002, 6.187854e-002
1.140000e+002, 6.257018e-002
1.150000e+002, 6.327140e-002
1.160000e+002, 6.398231e-002
1.170000e+002, 6.470293e-002
1.180000e+002, 6.543338e-002
1.190000e+002, 6.617378e-002
1.200000e+002, 6.692414e-002
1.210000e+002, 6.768461e-002
1.220000e+002, 6.845523e-002
1.230000e+002, 6.923610e-002
1.240000e+002, 7.002730e-002
1.250000e+002, 7.082895e-002
1.260000e+002, 7.164107e-002
1.270000e+002, 7.246383e-002
1.280000e+002, 7.329725e-002
1.290000e+002, 7.414140e-002
1.300000e+002, 7.499643e-002
1.310000e+002, 7.586240e-002
1.320000e+002, 7.673939e-002
1.330000e+002, 7.762748e-002
1.340000e+002, 7.852677e-002
1.350000e+002, 7.943735e-002
1.360000e+002, 8.035928e-002
1.370000e+002, 8.129269e-002
1.380000e+002, 8.223764e-002
1.390000e+002, 8.319419e-002
1.400000e+002, 8.416247e-002
1.410000e+002, 8.514258e-002
1.420000e+002, 8.613454e-002
1.430000e+002, 8.713851e-002
1.440000e+002, 8.815453e-002
1.450000e+002, 8.918267e-002
1.460000e+002, 9.022307e-002
1.470000e+002, 9.127577e-002
1.480000e+002, 9.234090e-002
1.490000e+002, 9.341853e-002
1.500000e+002, 9.450870e-002
1.510000e+002, 9.561154e-002
1.520000e+002, 9.672715e-002
1.530000e+002, 9.785558e-002
1.540000e+002, 9.899693e-002
1.550000e+002, 1.001513e-001
1.560000e+002, 1.013187e-001
1.570000e+002, 1.024993e-001
1.580000e+002, 1.036931e-001
1.590000e+002, 1.049004e-001
1.600000e+002, 1.061210e-001
1.610000e+002, 1.073551e-001
1.620000e+002, 1.086027e-001
1.630000e+002, 1.098641e-001
1.640000e+002, 1.111392e-001
1.650000e+002, 1.124281e-001
1.660000e+002, 1.137309e-001
1.670000e+002, 1.150477e-001
1.680000e+002, 1.163786e-001
1.690000e+002, 1.177236e-001
1.700000e+002, 1.190829e-001
1.710000e+002, 1.204564e-001
1.720000e+002, 1.218443e-001
1.730000e+002, 1.232466e-001
1.740000e+002, 1.246635e-001
1.750000e+002, 1.260949e-001
1.760000e+002, 1.275411e-001
1.770000e+002, 1.290019e-001
1.780000e+002, 1.304777e-001
1.790000e+002, 1.319682e-001
1.800000e+002, 1.334738e-001
1.810000e+002, 1.349944e-001
1.820000e+002, 1.365300e-001
1.830000e+002, 1.380809e-001
1.840000e+002, 1.396470e-001
1.850000e+002, 1.412284e-001
1.860000e+002, 1.428251e-001
1.870000e+002, 1.444373e-001
1.880000e+002, 1.460650e-001
1.890000e+002, 1.477082e-001
1.900000e+002, 1.493671e-001
1.910000e+002, 1.510416e-001
1.920000e+002, 1.527319e-001
1.930000e+002, 1.544380e-001
1.940000e+002, 1.561599e-001
1.950000e+002, 1.578978e-001
1.960000e+002, 1.596517e-001
1.970000e+002, 1.614215e-001
1.980000e+002, 1.632074e-001
1.990000e+002, 1.650095e-001
2.000000e+002, 1.668278e-001
2.010000e+002, 1.686622e-001
2.020000e+002, 1.705130e-001
2.030000e+002, 1.723801e-001
2.040000e+002, 1.742635e-001
2.050000e+002, 1.761634e-001
2.060000e+002, 1.780797e-001
2.070000e+002, 1.800125e-001
2.080000e+002, 1.819619e-001
2.090000e+002, 1.839278e-001
2.100000e+002, 1.859103e-001
2.110000e+002, 1.879095e-001
2.120000e+002, 1.899254e-001
2.130000e+002, 1.919580e-001
2.140000e+002, 1.940074e-001
2.150000e+002, 1.960735e-001
2.160000e+002, 1.981564e-001
2.170000e+002, 2.002561e-001
2.180000e+002, 2.023728e-001
2.190000e+002, 2.045063e-001
2.200000e+002, 2.066567e-001
2.210000e+002, 2.088239e-001
2.220000e+002, 2.110082e-001
2.230000e+002, 2.132094e-001
2.240000e+002, 2.154276e-001
2.250000e+002, 2.176628e-001
2.260000e+002, 2.199149e-001
2.270000e+002, 2.221841e-001
2.280000e+002, 2.244702e-001
2.290000e+002, 2.267734e-001
2.300000e+002, 2.290936e-001
2.310000e+002, 2.314308e-001
2.320000e+002, 2.337850e-001
2.330000e+002, 2.361563e-001
2.340000e+002, 2.385446e-001
2.350000e+002, 2.409498e-001
2.360000e+002, 2.433721e-001
2.370000e+002, 2.458114e-001
2.380000e+002, 2.482676e-001
2.390000e+002, 2.507408e-001
2.400000e+002, 2.532310e-001
2.410000e+002, 2.557380e-001
2.420000e+002, 2.582619e-001
2.430000e+002, 2.608028e-001
2.440000e+002, 2.633605e-001
2.450000e+002, 2.659351e-001
2.460000e+002, 2.685264e-001
2.470000e+002, 2.711346e-001
2.480000e+002, 2.737594e-001
2.490000e+002, 2.764010e-001
2.500000e+002, 2.790592e-001
2.510000e+002, 2.817340e-001
2.520000e+002, 2.844254e-001
2.530000e+002, 2.871333e-001
2.540000e+002, 2.898578e-001
2.550000e+002, 2.925986e-001
2.560000e+002, 2.953559e-001
2.570000e+002, 2.981295e-001
2.580000e+002, 3.009193e-001
2.590000e+002, 3.037254e-001
2.600000e+002, 3.065476e-001
2.610000e+002, 3.093859e-001
2.620000e+002, 3.122402e-001
2.630000e+002, 3.151104e-001
2.640000e+002, 3.179966e-001
2.650000e+002, 3.208985e-001
2.660000e+002, 3.238162e-001
2.670000e+002, 3.267495e-001
2.680000e+002, 3.296985e-001
2.690000e+002, 3.326629e-001
2.700000e+002, 3.356426e-001
2.710000e+002, 3.386377e-001
2.720000e+002, 3.416479e-001
2.730000e+002, 3.446734e-001
2.740000e+002, 3.477139e-001
2.750000e+002, 3.507692e-001
2.760000e+002, 3.538394e-001
2.770000e+002, 3.569244e-001
2.780000e+002, 3.600239e-001
2.790000e+002, 3.631379e-001
2.800000e+002, 3.662663e-001
2.810000e+002, 3.694090e-001
2.820000e+002, 3.725659e-001
2.830000e+002, 3.757367e-001
2.840000e+002, 3.789216e-001
2.850000e+002, 3.821203e-001
2.860000e+002, 3.853324e-001
2.870000e+002, 3.885583e-001
2.880000e+002, 3.917974e-001
2.890000e+002, 3.950499e-001
2.900000e+002, 3.983154e-001
2.910000e+002, 4.015941e-001
2.920000e+002, 4.048854e-001
2.930000e+002, 4.081894e-001
2.940000e+002, 4.115061e-001
2.950000e+002, 4.148350e-001
2.960000e+002, 4.181763e-001
2.970000e+002, 4.215296e-001
2.980000e+002, 4.248948e-001
2.990000e+002, 4.282718e-001
3.000000e+002, 4.316604e-001
3.010000e+002, 4.350604e-001
3.020000e+002, 4.384716e-001
3.030000e+002, 4.418940e-001
3.040000e+002, 4.453271e-001
3.050000e+002, 4.487711e-001
3.060000e+002, 4.522256e-001
3.070000e+002, 4.556904e-001
3.080000e+002, 4.591654e-001
3.090000e+002, 4.626504e-001
3.100000e+002, 4.661452e-001
3.110000e+002, 4.696496e-001
3.120000e+002, 4.731635e-001
3.130000e+002, 4.766864e-001
3.140000e+002, 4.802184e-001
3.150000e+002, 4.837593e-001
3.160000e+002, 4.873086e-001
3.170000e+002, 4.908664e-001
3.180000e+002, 4.944324e-001
3.190000e+002, 4.980062e-001
3.200000e+002, 5.015878e-001
3.210000e+002, 5.051771e-001
3.220000e+002, 5.087735e-001
3.230000e+002, 5.123771e-001
3.240000e+002, 5.159875e-001
3.250000e+002, 5.196044e-001
3.260000e+002, 5.232279e-001
3.270000e+002, 5.268575e-001
3.280000e+002, 5.304930e-001
3.290000e+002, 5.341342e-001
3.300000e+002, 5.377808e-001
3.310000e+002, 5.414326e-001
3.320000e+002, 5.450894e-001
3.330000e+002, 5.487509e-001
3.340000e+002, 5.524169e-001
3.350000e+002, 5.560871e-001
3.360000e+002, 5.597613e-001
3.370000e+002, 5.634391e-001
3.380000e+002, 5.671204e-001
3.390000e+002, 5.708049e-001
3.400000e+002, 5.744924e-001
3.410000e+002, 5.781824e-001
3.420000e+002, 5.818749e-001
3.430000e+002, 5.855695e-001
3.440000e+002, 5.892659e-001
3.450000e+002, 5.929641e-001
3.460000e+002, 5.966634e-001
3.470000e+002, 6.003638e-001
3.480000e+002, 6.040650e-001
3.490000e+002, 6.077666e-001
3.500000e+002, 6.114686e-001
3.510000e+002, 6.151703e-001
3.520000e+002, 6.188717e-001
3.530000e+002, 6.225726e-001
3.540000e+002, 6.262725e-001
3.550000e+002, 6.299711e-001
3.560000e+002, 6.336682e-001
3.570000e+002, 6.373634e-001
3.580000e+002, 6.410567e-001
3.590000e+002, 6.447475e-001
3.600000e+002, 6.484357e-001
3.610000e+002, 6.521208e-001
3.620000e+002, 6.558027e-001
3.630000e+002, 6.594809e-001
3.640000e+002, 6.631554e-001
3.650000e+002, 6.668256e-001
3.660000e+002, 6.704914e-001
3.670000e+002, 6.741523e-001
3.680000e+002, 6.778081e-001
3.690000e+002, 6.814585e-001
3.700000e+002, 6.851032e-001
3.710000e+002, 6.887419e-001
3.720000e+002, 6.923742e-001
3.730000e+002, 6.959999e-001
3.740000e+002, 6.996186e-001
3.750000e+002, 7.032299e-001
3.760000e+002, 7.068338e-001
3.770000e+002, 7.104298e-001
3.780000e+002, 7.140176e-001
3.790000e+002, 7.175967e-001
3.800000e+002, 7.211671e-001
3.810000e+002, 7.247282e-001
3.820000e+002, 7.282801e-001
3.830000e+002, 7.318219e-001
3.840000e+002, 7.353537e-001
3.850000e+002, 7.388751e-001
3.860000e+002, 7.423856e-001
3.870000e+002, 7.458851e-001
3.880000e+002, 7.493733e-001
3.890000e+002, 7.528496e-001
3.900000e+002, 7.563140e-001
3.910000e+002, 7.597660e-001
3.920000e+002, 7.632054e-001
3.930000e+002, 7.666317e-001
3.940000e+002, 7.700447e-001
3.950000e+002, 7.734441e-001
3.960000e+002, 7.768297e-001
3.970000e+002, 7.802008e-001
3.980000e+002, 7.835574e-001
3.990000e+002, 7.868990e-001
4.000000e+002, 7.902255e-001
4.010000e+002, 7.935364e-001
4.020000e+002, 7.968314e-001
4.030000e+002, 8.001102e-001
4.040000e+002, 8.033725e-001
4.050000e+002, 8.066181e-001
4.060000e+002, 8.098465e-001
4.070000e+002, 8.130574e-001
4.080000e+002, 8.162507e-001
4.090000e+002, 8.194258e-001
4.100000e+002, 8.225825e-001
4.110000e+002, 8.257206e-001
4.120000e+002, 8.288396e-001
4.130000e+002, 8.319394e-001
4.140000e+002, 8.350195e-001
4.150000e+002, 8.380796e-001
4.160000e+002, 8.411195e-001
4.170000e+002, 8.441389e-001
4.180000e+002, 8.471374e-001
4.190000e+002, 8.501148e-001
4.200000e+002, 8.530708e-001
4.210000e+002, 8.560050e-001
4.220000e+002, 8.589171e-001
4.230000e+002, 8.618068e-001
4.240000e+002, 8.646740e-001
4.250000e+002, 8.675182e-001
4.260000e+002, 8.703392e-001
4.270000e+002, 8.731366e-001
4.280000e+002, 8.759102e-001
4.290000e+002, 8.786598e-001
4.300000e+002, 8.813849e-001
4.310000e+002, 8.840855e-001
4.320000e+002, 8.867610e-001
4.330000e+002, 8.894114e-001
4.340000e+002, 8.920363e-001
4.350000e+002, 8.946353e-001
4.360000e+002, 8.972084e-001
4.370000e+002, 8.997550e-001
4.380000e+002, 9.022752e-001
4.390000e+002, 9.047684e-001
4.400000e+002, 9.072347e-001
4.410000e+002, 9.096733e-001
4.420000e+002, 9.120845e-001
4.430000e+002, 9.144678e-001
4.440000e+002, 9.168229e-001
4.450000e+002, 9.191495e-001
4.460000e+002, 9.214476e-001
4.470000e+002, 9.237167e-001
4.480000e+002, 9.259567e-001
4.490000e+002, 9.281673e-001
4.500000e+002, 9.303485e-001
4.510000e+002, 9.324995e-001
4.520000e+002, 9.346206e-001
4.530000e+002, 9.367114e-001
4.540000e+002, 9.387715e-001
4.550000e+002, 9.408010e-001
4.560000e+002, 9.427994e-001
4.570000e+002, 9.447666e-001
4.580000e+002, 9.467024e-001
4.590000e+002, 9.486066e-001
4.600000e+002, 9.504791e-001
4.610000e+002, 9.523194e-001
4.620000e+002, 9.541274e-001
4.630000e+002, 9.559029e-001
4.640000e+002, 9.576460e-001
4.650000e+002, 9.593560e-001
4.660000e+002, 9.610332e-001
4.670000e+002, 9.626771e-001
4.680000e+002, 9.642876e-001
4.690000e+002, 9.658645e-001
4.700000e+002, 9.674077e-001
4.710000e+002, 9.689170e-001
4.720000e+002, 9.703921e-001
4.730000e+002, 9.718332e-001
4.740000e+002, 9.732397e-001
4.750000e+002, 9.746116e-001
4.760000e+002, 9.759489e-001
4.770000e+002, 9.772514e-001
4.780000e+002, 9.785188e-001
4.790000e+002, 9.797511e-001
4.800000e+002, 9.809479e-001
4.810000e+002, 9.821095e-001
4.820000e+002, 9.832355e-001
4.830000e+002, 9.843258e-001
4.840000e+002, 9.853802e-001
4.850000e+002, 9.863988e-001
4.860000e+002, 9.873813e-001
4.870000e+002, 9.883277e-001
4.880000e+002, 9.892379e-001
4.890000e+002, 9.901116e-001
4.900000e+002, 9.909490e-001
4.910000e+002, 9.917497e-001
4.920000e+002, 9.925139e-001
4.930000e+002, 9.932412e-001
4.940000e+002, 9.939319e-001
4.950000e+002, 9.945857e-001
4.960000e+002, 9.952024e-001
4.970000e+002, 9.957822e-001
4.980000e+002, 9.963248e-001
4.990000e+002, 9.968302e-001
5.000000e+002, 9.972985e-001
5.010000e+002, 9.977295e-001
5.020000e+002, 9.981232e-001
5.030000e+002, 9.984796e-001
5.040000e+002, 9.987985e-001
5.050000e+002, 9.990799e-001
5.060000e+002, 9.993240e-001
5.070000e+002, 9.995305e-001
5.080000e+002, 9.996995e-001
5.090000e+002, 9.998311e-001
5.100000e+002, 9.999250e-001
5.110000e+002, 9.999813e-001
5.120000e+002, 1.000000e+000
5.130000e+002, 9.999813e-001
5.140000e+002, 9.999250e-001
5.150000e+002, 9.998311e-001
5.160000e+002, 9.996995e-001
5.170000e+002, 9.995305e-001
5.180000e+002, 9.993240e-001
5.190000e+002, 9.990799e-001
5.200000e+002, 9.987985e-001
5.210000e+002, 9.984796e-001
5.220000e+002, 9.981232e-001
5.230000e+002, 9.977295e-001
5.240000e+002, 9.972985e-001
5.250000e+002, 9.968302e-001
5.260000e+002, 9.963248e-001
5.270000e+002, 9.957822e-001
5.280000e+002, 9.952024e-001
5.290000e+002, 9.945857e-001
5.300000e+002, 9.939319e-001
5.310000e+002, 9.932412e-001
5.320000e+002, 9.925139e-001
5.330000e+002, 9.917497e-001
5.340000e+002, 9.909490e-001
5.350000e+002, 9.901116e-001
5.360000e+002, 9.892379e-001
5.370000e+002, 9.883277e-001
5.380000e+002, 9.873813e-001
5.390000e+002, 9.863988e-001
5.400000e+002, 9.853802e-001
5.410000e+002, 9.843258e-001
5.420000e+002, 9.832355e-001
5.430000e+002, 9.821095e-001
5.440000e+002, 9.809479e-001
5.450000e+002, 9.797511e-001
5.460000e+002, 9.785188e-001
5.470000e+002, 9.772514e-001
5.480000e+002, 9.759489e-001
5.490000e+002, 9.746116e-001
5.500000e+002, 9.732397e-001
5.510000e+002, 9.718332e-001
5.520000e+002, 9.703921e-001
5.530000e+002, 9.689170e-001
5.540000e+002, 9.674077e-001
5.550000e+002, 9.658645e-001
5.560000e+002, 9.642876e-001
5.570000e+002, 9.626771e-001
5.580000e+002, 9.610332e-001
5.590000e+002, 9.593560e-001
5.600000e+002, 9.576460e-001
5.610000e+002, 9.559029e-001
5.620000e+002, 9.541274e-001
5.630000e+002, 9.523194e-001
5.640000e+002, 9.504791e-001
5.650000e+002, 9.486066e-001
5.660000e+002, 9.467024e-001
5.670000e+002, 9.447666e-001
5.680000e+002, 9.427994e-001
5.690000e+002, 9.408010e-001
5.700000e+002, 9.387715e-001
5.710000e+002, 9.367114e-001
5.720000e+002, 9.346206e-001
5.730000e+002, 9.324995e-001
5.740000e+002, 9.303485e-001
5.750000e+002, 9.281673e-001
5.760000e+002, 9.259567e-001
5.770000e+002, 9.237167e-001
5.780000e+002, 9.214476e-001
5.790000e+002, 9.191495e-001
5.800000e+002, 9.168229e-001
5.810000e+002, 9.144678e-001
5.820000e+002, 9.120845e-001
5.830000e+002, 9.096733e-001
5.840000e+002, 9.072347e-001
5.850000e+002, 9.047684e-001
5.860000e+002, 9.022752e-001
5.870000e+002, 8.997550e-001
5.880000e+002, 8.972084e-001
5.890000e+002, 8.946353e-001
5.900000e+002, 8.920363e-001
5.910000e+002, 8.894114e-001
5.920000e+002, 8.867610e-001
5.930000e+002, 8.840855e-001
5.940000e+002, 8.813849e-001
5.950000e+002, 8.786598e-001
5.960000e+002, 8.759102e-001
5.970000e+002, 8.731366e-001
5.980000e+002, 8.703392e-001
5.990000e+002, 8.675182e-001
6.000000e+002, 8.646740e-001
6.010000e+002, 8.618068e-001
6.020000e+002, 8.589171e-001
6.030000e+002, 8.560050e-001
6.040000e+002, 8.530708e-001
6.050000e+002, 8.501148e-001
6.060000e+002, 8.471374e-001
6.070000e+002, 8.441389e-001
6.080000e+002, 8.411195e-001
6.090000e+002, 8.380796e-001
6.100000e+002, 8.350195e-001
6.110000e+002, 8.319394e-001
6.120000e+002, 8.288396e-001
6.130000e+002, 8.257206e-001
6.140000e+002, 8.225825e-001
6.150000e+002, 8.194258e-001
6.160000e+002, 8.162507e-001
6.170000e+002, 8.130574e-001
6.180000e+002, 8.098465e-001
6.190000e+002, 8.066181e-001
6.200000e+002, 8.033725e-001
6.210000e+002, 8.001102e-001
6.220000e+002, 7.968314e-001
6.230000e+002, 7.935364e-001
6.240000e+002, 7.902255e-001
6.250000e+002, 7.868990e-001
6.260000e+002, 7.835574e-001
6.270000e+002, 7.802008e-001
6.280000e+002, 7.768297e-001
6.290000e+002, 7.734441e-001
6.300000e+002, 7.700447e-001
6.310000e+002, 7.666317e-001
6.320000e+002, 7.632054e-001
6.330000e+002, 7.597660e-001
6.340000e+002, 7.563140e-001
6.350000e+002, 7.528496e-001
6.360000e+002, 7.493733e-001
6.370000e+002, 7.458851e-001
6.380000e+002, 7.423856e-001
6.390000e+002, 7.388751e-001
6.400000e+002, 7.353537e-001
6.410000e+002, 7.318219e-001
6.420000e+002, 7.282801e-001
6.430000e+002, 7.247282e-001
6.440000e+002, 7.211671e-001
6.450000e+002, 7.175967e-001
6.460000e+002, 7.140176e-001
6.470000e+002, 7.104298e-001
6.480000e+002, 7.068338e-001
6.490000e+002, 7.032299e-001
6.500000e+002, 6.996186e-001
6.510000e+002, 6.959999e-001
6.520000e+002, 6.923742e-001
6.530000e+002, 6.887419e-001
6.540000e+002, 6.851032e-001
6.550000e+002, 6.814585e-001
6.560000e+002, 6.778081e-001
6.570000e+002, 6.741523e-001
6.580000e+002, 6.704914e-001
6.590000e+002, 6.668256e-001
6.600000e+002, 6.631554e-001
6.610000e+002, 6.594809e-001
6.620000e+002, 6.558027e-001
6.630000e+002, 6.521208e-001
6.640000e+002, 6.484357e-001
6.650000e+002, 6.447475e-001
6.660000e+002, 6.410567e-001
6.670000e+002, 6.373634e-001
6.680000e+002, 6.336682e-001
6.690000e+002, 6.299711e-001
6.700000e+002, 6.262725e-001
6.710000e+002, 6.225726e-001
6.720000e+002, 6.188717e-001
6.730000e+002, 6.151703e-001
6.740000e+002, 6.114686e-001
6.750000e+002, 6.077666e-001
6.760000e+002, 6.040650e-001
6.770000e+002, 6.003638e-001
6.780000e+002, 5.966634e-001
6.790000e+002, 5.929641e-001
6.800000e+002, 5.892659e-001
6.810000e+002, 5.855695e-001
6.820000e+002, 5.818749e-001
6.830000e+002, 5.781824e-001
6.840000e+002, 5.744924e-001
6.850000e+002, 5.708049e-001
6.860000e+002, 5.671204e-001
6.870000e+002, 5.634391e-001
6.880000e+002, 5.597613e-001
6.890000e+002, 5.560871e-001
6.900000e+002, 5.524169e-001
6.910000e+002, 5.487509e-001
6.920000e+002, 5.450894e-001
6.930000e+002, 5.414326e-001
6.940000e+002, 5.377808e-001
6.950000e+002, 5.341342e-001
6.960000e+002, 5.304930e-001
6.970000e+002, 5.268575e-001
6.980000e+002, 5.232279e-001
6.990000e+002, 5.196044e-001
7.000000e+002, 5.159875e-001
7.010000e+002, 5.123771e-001
7.020000e+002, 5.087735e-001
7.030000e+002, 5.051771e-001
7.040000e+002, 5.015878e-001
7.050000e+002, 4.980062e-001
7.060000e+002, 4.944324e-001
7.070000e+002, 4.908664e-001
7.080000e+002, 4.873086e-001
7.090000e+002, 4.837593e-001
7.100000e+002, 4.802184e-001
7.110000e+002, 4.766864e-001
7.120000e+002, 4.731635e-001
7.130000e+002, 4.696496e-001
7.140000e+002, 4.661452e-001
7.150000e+002, 4.626504e-001
7.160000e+002, 4.591654e-001
7.170000e+002, 4.556904e-001
7.180000e+002, 4.522256e-001
7.190000e+002, 4.487711e-001
7.200000e+002, 4.453271e-001
7.210000e+002, 4.418940e-001
7.220000e+002, 4.384716e-001
7.230000e+002, 4.350604e-001
7.240000e+002, 4.316604e-001
7.250000e+002, 4.282718e-001
7.260000e+002, 4.248948e-001
7.270000e+002, 4.215296e-001
7.280000e+002, 4.181763e-001
7.290000e+002, 4.148350e-001
7.300000e+002, 4.115061e-001
7.310000e+002, 4.081894e-001
7.320000e+002, 4.048854e-001
7.330000e+002, 4.015941e-001
7.340000e+002, 3.983154e-001
7.350000e+002, 3.950499e-001
7.360000e+002, 3.917974e-001
7.370000e+002, 3.885583e-001
7.380000e+002, 3.853324e-001
7.390000e+002, 3.821203e-001
7.400000e+002, 3.789216e-001
7.410000e+002, 3.757367e-001
7.420000e+002, 3.725659e-001
7.430000e+002, 3.694090e-001
7.440000e+002, 3.662663e-001
7.450000e+002, 3.631379e-001
7.460000e+002, 3.600239e-001
7.470000e+002, 3.569244e-001
7.480000e+002, 3.538394e-001
7.490000e+002, 3.507692e-001
7.500000e+002, 3.477139e-001
7.510000e+002, 3.446734e-001
7.520000e+002, 3.416479e-001
7.530000e+002, 3.386377e-001
7.540000e+002, 3.356426e-001
7.550000e+002, 3.326629e-001
7.560000e+002, 3.296985e-001
7.570000e+002, 3.267495e-001
7.580000e+002, 3.238162e-001
7.590000e+002, 3.208985e-001
7.600000e+002, 3.179966e-001
7.610000e+002, 3.151104e-001
7.620000e+002, 3.122402e-001
7.630000e+002, 3.093859e-001
7.640000e+002, 3.065476e-001
7.650000e+002, 3.037254e-001
7.660000e+002, 3.009193e-001
7.670000e+002, 2.981295e-001
7.680000e+002, 2.953559e-001
7.690000e+002, 2.925986e-001
7.700000e+002, 2.898578e-001
7.710000e+002, 2.871333e-001
7.720000e+002, 2.844254e-001
7.730000e+002, 2.817340e-001
7.740000e+002, 2.790592e-001
7.750000e+002, 2.764010e-001
7.760000e+002, 2.737594e-001
7.770000e+002, 2.711346e-001
7.780000e+002, 2.685264e-001
7.790000e+002, 2.659351e-001
7.800000e+002, 2.633605e-001
7.810000e+002, 2.608028e-001
7.820000e+002, 2.582619e-001
7.830000e+002, 2.557380e-001
7.840000e+002, 2.532310e-001
7.850000e+002, 2.507408e-001
7.860000e+002, 2.482676e-001
7.870000e+002, 2.458114e-001
7.880000e+002, 2.433721e-001
7.890000e+002, 2.409498e-001
7.900000e+002, 2.385446e-001
7.910000e+002, 2.361563e-001
7.920000e+002, 2.337850e-001
7.930000e+002, 2.314308e-001
7.940000e+002, 2.290936e-001
7.950000e+002, 2.267734e-001
7.960000e+002, 2.244702e-001
7.970000e+002, 2.221841e-001
7.980000e+002, 2.199149e-001
7.990000e+002, 2.176628e-001
8.000000e+002, 2.154276e-001
8.010000e+002, 2.132094e-001
8.020000e+002, 2.110082e-001
8.030000e+002, 2.088239e-001
8.040000e+002, 2.066567e-001
8.050000e+002, 2.045063e-001
8.060000e+002, 2.023728e-001
8.070000e+002, 2.002561e-001
8.080000e+002, 1.981564e-001
8.090000e+002, 1.960735e-001
8.100000e+002, 1.940074e-001
8.110000e+002, 1.919580e-001
8.120000e+002, 1.899254e-001
8.130000e+002, 1.879095e-001
8.140000e+002, 1.859103e-001
8.150000e+002, 1.839278e-001
8.160000e+002, 1.819619e-001
8.170000e+002, 1.800125e-001
8.180000e+002, 1.780797e-001
8.190000e+002, 1.761634e-001
8.200000e+002, 1.742635e-001
8.210000e+002, 1.723801e-001
8.220000e+002, 1.705130e-001
8.230000e+002, 1.686622e-001
8.240000e+002, 1.668278e-001
8.250000e+002, 1.650095e-001
8.260000e+002, 1.632074e-001
8.270000e+002, 1.614215e-001
8.280000e+002, 1.596517e-001
8.290000e+002, 1.578978e-001
8.300000e+002, 1.561599e-001
8.310000e+002, 1.544380e-001
8.320000e+002, 1.527319e-001
8.330000e+002, 1.510416e-001
8.340000e+002, 1.493671e-001
8.350000e+002, 1.477082e-001
8.360000e+002, 1.460650e-001
8.370000e+002, 1.444373e-001
8.380000e+002, 1.428251e-001
8.390000e+002, 1.412284e-001
8.400000e+002, 1.396470e-001
8.410000e+002, 1.380809e-001
8.420000e+002, 1.365300e-001
8.430000e+002, 1.349944e-001
8.440000e+002, 1.334738e-001
8.450000e+002, 1.319682e-001
8.460000e+002, 1.304777e-001
8.470000e+002, 1.290019e-001
8.480000e+002, 1.275411e-001
8.490000e+002, 1.260949e-001
8.500000e+002, 1.246635e-001
8.510000e+002, 1.232466e-001
8.520000e+002, 1.218443e-001
8.530000e+002, 1.204564e-001
8.540000e+002, 1.190829e-001
8.550000e+002, 1.177236e-001
8.560000e+002, 1.163786e-001
8.570000e+002, 1.150477e-001
8.580000e+002, 1.137309e-001
8.590000e+002, 1.124281e-001
8.600000e+002, 1.111392e-001
8.610000e+002, 1.098641e-001
8.620000e+002, 1.086027e-001
8.630000e+002, 1.073551e-001
8.640000e+002, 1.061210e-001
8.650000e+002, 1.049004e-001
8.660000e+002, 1.036931e-001
8.670000e+002, 1.024993e-001
8.680000e+002, 1.013187e-001
8.690000e+002, 1.001513e-001
8.700000e+002, 9.899693e-002
8.710000e+002, 9.785558e-002
8.720000e+002, 9.672715e-002
8.730000e+002, 9.561154e-002
8.740000e+002, 9.450870e-002
8.750000e+002, 9.341853e-002
8.760000e+002, 9.234090e-002
8.770000e+002, 9.127577e-002
8.780000e+002, 9.022307e-002
8.790000e+002, 8.918267e-002
8.800000e+002, 8.815453e-002
8.810000e+002, 8.713851e-002
8.820000e+002, 8.613454e-002
8.830000e+002, 8.514258e-002
8.840000e+002, 8.416247e-002
8.850000e+002, 8.319419e-002
8.860000e+002, 8.223764e-002
8.870000e+002, 8.129269e-002
8.880000e+002, 8.035928e-002
8.890000e+002, 7.943735e-002
8.900000e+002, 7.852677e-002
8.910000e+002, 7.762748e-002
8.920000e+002, 7.673939e-002
8.930000e+002, 7.586240e-002
8.940000e+002, 7.499643e-002
8.950000e+002, 7.414140e-002
8.960000e+002, 7.329725e-002
8.970000e+002, 7.246383e-002
8.980000e+002, 7.164107e-002
8.990000e+002, 7.082895e-002
9.000000e+002, 7.002730e-002
9.010000e+002, 6.923610e-002
9.020000e+002, 6.845523e-002
9.030000e+002, 6.768461e-002
9.040000e+002, 6.692414e-002
9.050000e+002, 6.617378e-002
9.060000e+002, 6.543338e-002
9.070000e+002, 6.470293e-002
9.080000e+002, 6.398231e-002
9.090000e+002, 6.327140e-002
9.100000e+002, 6.257018e-002
9.110000e+002, 6.187854e-002
9.120000e+002, 6.119639e-002
9.130000e+002, 6.052366e-002
9.140000e+002, 5.986024e-002
9.150000e+002, 5.920610e-002
9.160000e+002, 5.856112e-002
9.170000e+002, 5.792524e-002
9.180000e+002, 5.729834e-002
9.190000e+002, 5.668040e-002
9.200000e+002, 5.607129e-002
9.210000e+002, 5.547095e-002
9.220000e+002, 5.487932e-002
9.230000e+002, 5.429628e-002
9.240000e+002, 5.372177e-002
9.250000e+002, 5.315574e-002
9.260000e+002, 5.259808e-002
9.270000e+002, 5.204872e-002
9.280000e+002, 5.150760e-002
9.290000e+002, 5.097463e-002
9.300000e+002, 5.044972e-002
9.310000e+002, 4.993284e-002
9.320000e+002, 4.942387e-002
9.330000e+002, 4.892276e-002
9.340000e+002, 4.842944e-002
9.350000e+002, 4.794383e-002
9.360000e+002, 4.746585e-002
9.370000e+002, 4.699546e-002
9.380000e+002, 4.653256e-002
9.390000e+002, 4.607708e-002
9.400000e+002, 4.562895e-002
9.410000e+002, 4.518813e-002
9.420000e+002, 4.475453e-002
9.430000e+002, 4.432809e-002
9.440000e+002, 4.390872e-002
9.450000e+002, 4.349639e-002
9.460000e+002, 4.309099e-002
9.470000e+002, 4.269251e-002
9.480000e+002, 4.230085e-002
9.490000e+002, 4.191595e-002
9.500000e+002, 4.153775e-002
9.510000e+002, 4.116620e-002
9.520000e+002, 4.080122e-002
9.530000e+002, 4.044276e-002
9.540000e+002, 4.009075e-002
9.550000e+002, 3.974514e-002
9.560000e+002, 3.940587e-002
9.570000e+002, 3.907289e-002
9.580000e+002, 3.874614e-002
9.590000e+002, 3.842555e-002
9.600000e+002, 3.811107e-002
9.610000e+002, 3.780266e-002
9.620000e+002, 3.750023e-002
9.630000e+002, 3.720377e-002
9.640000e+002, 3.691318e-002
9.650000e+002, 3.662846e-002
9.660000e+002, 3.634952e-002
9.670000e+002, 3.607634e-002
9.680000e+002, 3.580884e-002
9.690000e+002, 3.554700e-002
9.700000e+002, 3.529074e-002
9.710000e+002, 3.504005e-002
9.720000e+002, 3.479486e-002
9.730000e+002, 3.455510e-002
9.740000e+002, 3.432079e-002
9.750000e+002, 3.409183e-002
9.760000e+002, 3.386820e-002
9.770000e+002, 3.364986e-002
9.780000e+002, 3.343676e-002
9.790000e+002, 3.322884e-002
9.800000e+002, 3.302610e-002
9.810000e+002, 3.282848e-002
9.820000e+002, 3.263595e-002
9.830000e+002, 3.244847e-002
9.840000e+002, 3.226596e-002
9.850000e+002, 3.208847e-002
9.860000e+002, 3.191590e-002
9.870000e+002, 3.174825e-002
9.880000e+002, 3.158546e-002
9.890000e+002, 3.142752e-002
9.900000e+002, 3.127437e-002
9.910000e+002, 3.112601e-002
9.920000e+002, 3.098241e-002
9.930000e+002, 3.084350e-002
9.940000e+002, 3.070930e-002
9.950000e+002, 3.057978e-002
9.960000e+002, 3.045486e-002
9.970000e+002, 3.033458e-002
9.980000e+002, 3.021888e-002
9.990000e+002, 3.010774e-002
1.000000e+003, 3.000116e-002
1.001000e+003, 2.989907e-002
1.002000e+003, 2.980149e-002
1.003000e+003, 2.970839e-002
1.004000e+003, 2.961976e-002
1.005000e+003, 2.953556e-002
1.006000e+003, 2.945579e-002
1.007000e+003, 2.938042e-002
1.008000e+003, 2.930944e-002
1.009000e+003, 2.924284e-002
1.010000e+003, 2.918060e-002
1.011000e+003, 2.912271e-002
1.012000e+003, 2.906915e-002
1.013000e+003, 2.901992e-002
1.014000e+003, 2.897501e-002
1.015000e+003, 2.893441e-002
1.016000e+003, 2.889809e-002
1.017000e+003, 2.886607e-002
1.018000e+003, 2.883835e-002
1.019000e+003, 2.881487e-002
1.020000e+003, 2.879568e-002
1.021000e+003, 2.878078e-002
1.022000e+003, 2.877012e-002
1.023000e+003, 2.876372e-002
#ENDOFDATA   : End Of Data and File